 C10H8O4 Density=1.38, Angle=90.deg
 Photon Energy (eV), Atten Length (microns)
   30.0000  2.080530E-02
   32.1456  2.333268E-02
   34.4446  2.608759E-02
   36.9081  2.916936E-02
   39.5477  3.305433E-02
   42.3761  3.773554E-02
   45.4068  4.297437E-02
   48.6543  4.832224E-02
   52.1340  5.507055E-02
   55.8626  6.237473E-02
   59.8579  7.036434E-02
   64.1389  8.017897E-02
   68.7260  9.169897E-02
   73.6413  0.104780
   78.9080  0.119670
   84.5515  0.136641
   90.5985  0.155982
   97.0781  0.178014
   104.021  0.205857
   111.461  0.239091
   119.432  0.277675
   127.974  0.322477
   137.126  0.374977
   146.934  0.435924
   157.442  0.506737
   168.702  0.589017
   180.768  0.685237
   193.696  0.825736
   207.549  1.00278
   222.393  1.21699
   238.298  1.47080
   255.341  1.77001
   273.603  2.14866
   293.171  0.227174
   314.139  0.265110
   336.606  0.309375
   360.679  0.361021
   386.475  0.423578
   414.115  0.502792
   443.733  0.596828
   475.468  0.708435
   509.473  0.842870
   545.910  0.521990
   584.953  0.619774
   626.789  0.734785
   671.616  0.875849
   719.650  1.03632
   771.119  1.24160
   826.269  1.49291
   885.363  1.79133
   948.683  2.14951
   1016.53  2.59148
   1089.23  3.12717
   1167.14  3.77823
   1250.61  4.56567
   1340.05  5.53271
   1435.89  6.70659
   1538.58  8.14089
   1648.62  9.89579
   1766.53  12.0356
   1892.87  14.6625
   2028.25  17.8570
   2173.31  21.7832
   2328.74  26.5951
   2495.29  32.4980
   2673.75  39.7471
   2864.98  48.6602
   3069.88  59.6342
   3289.43  73.1697
   3524.69  89.8888
   3776.78  110.591
   4046.89  136.267
   4336.32  168.109
   4646.45  207.536
   4978.76  256.379
   5334.84  316.929
   5716.38  392.007
   6125.21  485.127
   6563.29  600.671
   7032.69  743.958
   7535.66  921.579
   8074.60  1141.57
   8652.09  1413.91
   9270.88  1750.22
   9933.93  2164.40
   10644.4  2673.37
   11405.7  3295.48
   12221.4  4051.04
   13095.5  4961.45
   14032.1  6047.15
   15035.6  7325.45
   16110.9  8816.15
   17263.2  10517.5
   18497.9  12418.0
   19820.8  14484.6
   21238.4  16717.7
   22757.3  19077.5
   24384.9  21470.2
   26128.9  23828.0
   27997.6  26086.2
   30000.0  28188.7
